SpectraSuite Datei
++++++++++++++++++++++++++++++++++++
Datum: Thu Sep 19 18:53:01 CEST 2024
Benutzer: Student
Dark-Spektrum vorhanden: Nein
Referenz-Spektrum vorhanden: Nein
Zahl der probierten Teilspektren: 1
Spektrometer: USB2+H15728
Integrationszeit (usec): 100000 (USB2+H15728)
Spektren Durchschnitt berechnet: 10 (USB2+H15728)
Boxcar Glättung: 0 (USB2+H15728)
Dunkelstromkorrektur: Nein (USB2+H15728)
Puls/Lampe aktiviert: Nein (USB2+H15728)
Correct for Detector Non-linearity: Nein (USB2+H15728)
Streulichtkorrektur: Nein (USB2+H15728)
Anzahl Pixel in verarbeitetem Spektrum: 2048
>>>>>Begin Processed Spectral Data<<<<<
0,00	603,86
1,00	603,86
2,00	603,86
3,00	576,01
4,00	598,94
5,00	591,22
6,00	576,01
7,00	601,99
8,00	619,31
9,00	622,11
10,00	618,14
11,00	656,52
12,00	651,14
13,00	704,03
14,00	690,93
15,00	703,80
16,00	711,52
17,00	759,27
18,00	754,82
19,00	810,76
20,00	778,93
21,00	801,63
22,00	822,00
23,00	1380,21
24,00	2777,98
25,00	2946,50
26,00	3076,40
27,00	3140,06
28,00	3108,23
29,00	3054,63
30,00	3146,85
31,00	3329,88
32,00	3373,18
33,00	3388,86
34,00	3367,56
35,00	3415,31
36,00	3453,69
37,00	3481,08
38,00	3430,99
39,00	3511,74
40,00	3471,01
41,00	3478,97
42,00	3355,86
43,00	3415,08
44,00	3444,57
45,00	3575,87
46,00	3689,62
47,00	3627,36
48,00	3559,95
49,00	3452,99
50,00	3346,26
51,00	3558,55
52,00	3714,90
53,00	3750,01
54,00	3597,17
55,00	3625,96
56,00	3584,76
57,00	3585,70
58,00	3663,87
59,00	3540,06
60,00	3509,63
61,00	3665,51
62,00	3797,05
63,00	3794,48
64,00	3629,47
65,00	3802,43
66,00	3756,09
67,00	3777,16
68,00	3966,04
69,00	4079,09
70,00	4122,39
71,00	4141,81
72,00	4232,39
73,00	4201,73
74,00	4179,26
75,00	4013,08
76,00	3993,66
77,00	3872,65
78,00	3778,09
79,00	3686,81
80,00	3725,90
81,00	4069,96
82,00	4262,35
83,00	4327,42
84,00	4454,98
85,00	4526,36
86,00	4711,26
87,00	4675,45
88,00	4590,26
89,00	4580,90
90,00	4566,15
91,00	4656,26
92,00	4638,24
93,00	4634,26
94,00	4588,15
95,00	4583,00
96,00	4466,21
97,00	4727,41
98,00	4878,85
99,00	4895,93
100,00	4859,42
101,00	4772,12
102,00	4624,90
103,00	4869,02
104,00	4953,98
105,00	4865,04
106,00	4933,15
107,00	4914,89
108,00	4927,76
109,00	4973,64
110,00	5170,01
111,00	5256,61
112,00	5321,21
113,00	5203,48
114,00	5137,01
115,00	5041,51
116,00	5058,60
117,00	4948,36
118,00	4992,13
119,00	5062,11
120,00	5105,88
121,00	5228,05
122,00	5183,35
123,00	5185,22
124,00	5199,03
125,00	5137,01
126,00	5289,61
127,00	5470,30
128,00	5420,21
129,00	5511,73
130,00	5195,99
131,00	5135,84
132,00	5293,36
133,00	5465,85
134,00	5620,09
135,00	5777,14
136,00	5941,92
137,00	5911,73
138,00	5893,94
139,00	5920,39
140,00	5721,21
141,00	5719,80
142,00	5772,70
143,00	5726,35
144,00	5472,64
145,00	5197,39
146,00	5106,58
147,00	5526,00
148,00	5914,77
149,00	6045,37
150,00	5789,32
151,00	5795,17
152,00	5722,61
153,00	5758,89
154,00	6053,56
155,00	5936,77
156,00	5927,64
157,00	5826,76
158,00	5641,16
159,00	5809,91
160,00	6041,86
161,00	5901,19
162,00	5874,98
163,00	5919,68
164,00	5770,36
165,00	5891,13
166,00	6188,14
167,00	6094,05
168,00	5833,32
169,00	5683,76
170,00	5416,47
171,00	5571,65
172,00	5774,80
173,00	6098,97
174,00	6154,91
175,00	5906,11
176,00	5971,41
177,00	5916,17
178,00	5641,16
179,00	5628,75
180,00	5452,98
181,00	5583,35
182,00	5632,73
183,00	5362,87
184,00	4983,70
185,00	4580,43
186,00	4662,82
187,00	4768,14
188,00	4851,70
189,00	4864,34
190,00	4920,98
191,00	5305,53
192,00	5864,68
193,00	6463,16
194,00	6903,18
195,00	7070,99
196,00	6915,11
197,00	6597,03
198,00	6208,04
199,00	5988,96
200,00	6504,35
201,00	7122,95
202,00	6958,88
203,00	6773,74
204,00	6734,19
205,00	6428,75
206,00	5926,70
207,00	5854,38
208,00	6328,11
209,00	6812,13
210,00	7196,68
211,00	7105,63
212,00	7299,90
213,00	7002,41
214,00	7001,01
215,00	7396,33
216,00	7460,46
217,00	7637,64
218,00	7654,49
219,00	7858,11
220,00	7905,39
221,00	7821,60
222,00	7546,12
223,00	7591,53
224,00	7482,69
225,00	7383,92
226,00	7269,00
227,00	7345,77
228,00	7448,52
229,00	7069,12
230,00	6774,45
231,00	6630,04
232,00	7404,05
233,00	7562,04
234,00	7631,32
235,00	7752,09
236,00	7938,39
237,00	7906,80
238,00	8132,89
239,00	7927,39
240,00	7790,47
241,00	7758,17
242,00	7720,02
243,00	8015,63
244,00	8356,88
245,00	8657,88
246,00	8750,09
247,00	8702,81
248,00	8348,22
249,00	8865,48
250,00	9044,77
251,00	9048,51
252,00	8745,88
253,00	8803,93
254,00	9015,04
255,00	8968,23
256,00	8962,15
257,00	8904,10
258,00	8932,89
259,00	8926,57
260,00	9355,82
261,00	9293,10
262,00	8990,93
263,00	9204,16
264,00	9400,76
265,00	9346,46
266,00	9309,01
267,00	9073,32
268,00	9077,30
269,00	8689,71
270,00	8529,15
271,00	8818,44
272,00	8918,38
273,00	9088,30
274,00	9467,70
275,00	9519,66
276,00	9504,92
277,00	9591,52
278,00	9639,03
279,00	10010,24
280,00	10346,10
281,00	10037,86
282,00	9973,96
283,00	9749,74
284,00	9588,71
285,00	10201,46
286,00	10203,33
287,00	10147,63
288,00	9966,24
289,00	9955,70
290,00	10117,43
291,00	10134,52
292,00	10419,83
293,00	10387,77
294,00	10525,16
295,00	10458,92
296,00	10875,30
297,00	10675,89
298,00	10817,49
299,00	10588,35
300,00	10738,14
301,00	10480,45
302,00	10389,64
303,00	10639,61
304,00	10335,57
305,00	10432,94
306,00	10294,38
307,00	9975,36
308,00	9762,37
309,00	9471,91
310,00	9458,57
311,00	9678,58
312,00	10041,37
313,00	10033,17
314,00	10391,28
315,00	10735,80
316,00	10476,00
317,00	10368,57
318,00	10450,73
319,00	10129,14
320,00	10153,24
321,00	10172,20
322,00	10248,97
323,00	10445,81
324,00	10413,04
325,00	10584,37
326,00	10893,56
327,00	10852,60
328,00	10892,39
329,00	10816,79
330,00	10753,12
331,00	10950,20
332,00	10811,64
333,00	10793,61
334,00	10956,75
335,00	11096,01
336,00	10923,98
337,00	10732,76
338,00	10552,77
339,00	10568,92
340,00	10575,94
341,00	10850,96
342,00	10883,26
343,00	11033,52
344,00	10769,27
345,00	10854,47
346,00	10773,49
347,00	10971,03
348,00	10904,09
349,00	10998,18
350,00	11068,16
351,00	11399,58
352,00	11518,95
353,00	11542,82
354,00	11713,91
355,00	11537,67
356,00	11641,59
357,00	11706,89
358,00	11762,60
359,00	11642,53
360,00	11869,56
361,00	11977,93
362,00	12059,38
363,00	11895,07
364,00	12061,72
365,00	12078,57
366,00	12102,91
367,00	11893,90
368,00	12109,93
369,00	11921,75
370,00	11825,09
371,00	11970,90
372,00	12034,80
373,00	11978,63
374,00	11756,98
375,00	11801,68
376,00	12120,70
377,00	12380,73
378,00	12334,16
379,00	12164,47
380,00	12402,03
381,00	12583,19
382,00	12425,20
383,00	12121,87
384,00	11753,00
385,00	11631,29
386,00	11512,16
387,00	11967,16
388,00	12292,49
389,00	12327,84
390,00	12355,69
391,00	12465,23
392,00	12215,72
393,00	12154,64
394,00	12266,75
395,00	12591,15
396,00	12561,42
397,00	12540,82
398,00	12426,61
399,00	12484,65
400,00	12493,31
401,00	12551,12
402,00	12416,78
403,00	12269,79
404,00	12139,42
405,00	12076,46
406,00	12094,95
407,00	12362,94
408,00	12414,90
409,00	12539,42
410,00	12893,08
411,00	12904,78
412,00	13020,63
413,00	13355,10
414,00	13621,22
415,00	13760,95
416,00	13672,94
417,00	13593,83
418,00	13464,87
419,00	13159,90
420,00	12947,61
421,00	13071,66
422,00	13477,27
423,00	13551,47
424,00	13520,34
425,00	13767,73
426,00	14039,00
427,00	13917,53
428,00	14204,95
429,00	14278,44
430,00	14332,50
431,00	14253,16
432,00	14015,60
433,00	14024,02
434,00	13938,83
435,00	14010,68
436,00	14168,90
437,00	14284,99
438,00	13991,96
439,00	13887,33
440,00	13912,61
441,00	14210,09
442,00	14529,34
443,00	14894,00
444,00	14922,09
445,00	15138,59
446,00	15333,32
447,00	15279,49
448,00	15294,23
449,00	15208,33
450,00	14988,79
451,00	14938,47
452,00	14905,94
453,00	15172,76
454,00	15293,06
455,00	15396,51
456,00	15768,42
457,00	15896,22
458,00	15632,67
459,00	15389,26
460,00	15589,14
461,00	15731,91
462,00	15817,57
463,00	15599,90
464,00	15760,93
465,00	16016,05
466,00	16077,84
467,00	16287,55
468,00	16486,73
469,00	16534,71
470,00	16557,65
471,00	16407,86
472,00	16207,98
473,00	16012,54
474,00	16300,66
475,00	16467,54
476,00	16280,06
477,00	16328,05
478,00	16286,38
479,00	16497,73
480,00	16431,03
481,00	16314,47
482,00	16092,35
483,00	16279,36
484,00	16372,05
485,00	16518,80
486,00	16457,24
487,00	16174,27
488,00	16030,10
489,00	15675,74
490,00	15011,03
491,00	14226,95
492,00	13683,71
493,00	12888,86
494,00	12574,06
495,00	13874,93
496,00	14911,79
497,00	15430,22
498,00	15611,37
499,00	15472,81
500,00	15352,28
501,00	15978,84
502,00	16452,80
503,00	16673,74
504,00	16918,56
505,00	16967,25
506,00	16755,66
507,00	16700,66
508,00	16237,93
509,00	16188,32
510,00	16217,34
511,00	16583,63
512,00	17720,20
513,00	18199,77
514,00	18377,65
515,00	18077,36
516,00	17892,46
517,00	17859,93
518,00	17781,05
519,00	17991,46
520,00	17765,60
521,00	17178,83
522,00	17398,84
523,00	17657,94
524,00	17673,39
525,00	17311,07
526,00	16519,27
527,00	16131,44
528,00	16646,12
529,00	17458,29
530,00	17925,23
531,00	18543,13
532,00	18617,79
533,00	18528,85
534,00	18168,41
535,00	17729,32
536,00	17899,48
537,00	17719,96
538,00	17946,99
539,00	18778,35
540,00	19020,83
541,00	19148,16
542,00	19088,94
543,00	19275,72
544,00	19217,20
545,00	19016,62
546,00	18704,39
547,00	18381,63
548,00	17756,01
549,00	18485,79
550,00	19339,85
551,00	19417,32
552,00	19360,91
553,00	18864,72
554,00	18932,83
555,00	19252,78
556,00	19276,65
557,00	19596,37
558,00	19448,45
559,00	19236,63
560,00	18945,70
561,00	18399,89
562,00	18021,42
563,00	17839,56
564,00	18465,66
565,00	19166,18
566,00	19471,62
567,00	19301,93
568,00	19444,47
569,00	19631,01
570,00	19499,71
571,00	19226,33
572,00	18930,96
573,00	18737,39
574,00	18709,77
575,00	18493,74
576,00	18313,52
577,00	18849,97
578,00	19101,58
579,00	18614,98
580,00	18325,46
581,00	18411,59
582,00	18520,89
583,00	18670,92
584,00	19211,82
585,00	19464,13
586,00	19702,86
587,00	19649,73
588,00	19589,11
589,00	19999,64
590,00	20434,05
591,00	20167,23
592,00	19825,98
593,00	19152,60
594,00	19149,09
595,00	18806,91
596,00	18877,36
597,00	20078,29
598,00	20663,89
599,00	20785,36
600,00	20384,66
601,00	20876,64
602,00	20631,59
603,00	21272,43
604,00	21517,95
605,00	21570,61
606,00	21858,50
607,00	21919,59
608,00	21767,45
609,00	21222,11
610,00	20925,09
611,00	21181,38
612,00	21235,21
613,00	21121,23
614,00	21142,29
615,00	21399,99
616,00	21017,54
617,00	20842,94
618,00	20389,11
619,00	21055,46
620,00	21474,18
621,00	21821,75
622,00	22416,48
623,00	22568,15
624,00	22844,33
625,00	22998,34
626,00	22688,45
627,00	22401,50
628,00	21684,13
629,00	21947,20
630,00	22259,90
631,00	22869,37
632,00	22507,06
633,00	22484,36
634,00	22482,25
635,00	22738,54
636,00	23150,71
637,00	23394,82
638,00	23484,00
639,00	23814,01
640,00	24019,05
641,00	23685,52
642,00	23093,60
643,00	22486,46
644,00	22452,76
645,00	22602,55
646,00	23014,72
647,00	23286,69
648,00	23281,54
649,00	23077,68
650,00	23034,15
651,00	22838,95
652,00	22599,98
653,00	22876,86
654,00	22913,38
655,00	23269,84
656,00	23432,51
657,00	23705,65
658,00	24067,26
659,00	24163,46
660,00	24349,53
661,00	24124,14
662,00	24094,18
663,00	23977,15
664,00	23889,85
665,00	23319,23
666,00	22299,69
667,00	21264,24
668,00	19777,53
669,00	19386,19
670,00	19825,74
671,00	19856,40
672,00	20952,71
673,00	23319,69
674,00	24211,20
675,00	23787,10
676,00	22509,87
677,00	20568,86
678,00	19862,72
679,00	22221,28
680,00	23715,71
681,00	24038,00
682,00	24032,85
683,00	23793,65
684,00	24183,59
685,00	23985,81
686,00	24549,88
687,00	25180,42
688,00	25358,07
689,00	24981,94
690,00	24703,89
691,00	24111,03
692,00	24157,84
693,00	24350,70
694,00	24954,79
695,00	25310,32
696,00	25181,36
697,00	25193,99
698,00	26024,65
699,00	26313,94
700,00	25808,15
701,00	24853,68
702,00	23486,11
703,00	23308,69
704,00	24467,26
705,00	25002,30
706,00	25327,41
707,00	25256,95
708,00	26124,59
709,00	26467,71
710,00	26268,07
711,00	25828,98
712,00	25982,05
713,00	26225,47
714,00	26608,85
715,00	26210,26
716,00	26150,57
717,00	26280,00
718,00	26258,00
719,00	25849,11
720,00	25420,09
721,00	25584,40
722,00	25425,01
723,00	24474,05
724,00	23508,81
725,00	23143,92
726,00	23096,41
727,00	23315,95
728,00	22855,80
729,00	23845,61
730,00	23546,73
731,00	24246,31
732,00	25347,77
733,00	26044,55
734,00	25852,39
735,00	25936,88
736,00	26217,98
737,00	26903,29
738,00	27396,91
739,00	26980,29
740,00	26595,27
741,00	26423,48
742,00	26215,64
743,00	25936,88
744,00	25639,87
745,00	25785,21
746,00	26603,00
747,00	26980,99
748,00	27614,81
749,00	27537,10
750,00	27055,19
751,00	26680,00
752,00	26863,26
753,00	26855,54
754,00	27086,32
755,00	26820,20
756,00	26572,10
757,00	27134,53
758,00	26771,05
759,00	26379,01
760,00	25253,44
761,00	24713,48
762,00	23442,57
763,00	24173,99
764,00	25401,83
765,00	26025,35
766,00	26573,97
767,00	26759,58
768,00	26559,46
769,00	26266,90
770,00	26418,56
771,00	26600,66
772,00	26530,21
773,00	26173,74
774,00	25542,03
775,00	26080,82
776,00	26833,77
777,00	27650,39
778,00	27972,68
779,00	28188,48
780,00	28063,02
781,00	28031,43
782,00	27364,14
783,00	26769,41
784,00	26328,22
785,00	25292,30
786,00	24672,52
787,00	24598,80
788,00	25472,52
789,00	26656,60
790,00	27041,38
791,00	27140,15
792,00	27147,64
793,00	27185,09
794,00	27065,49
795,00	27297,43
796,00	27329,97
797,00	26842,20
798,00	25544,14
799,00	25280,13
800,00	25016,58
801,00	25376,09
802,00	25378,43
803,00	25296,98
804,00	25733,96
805,00	25917,22
806,00	25829,68
807,00	25274,51
808,00	25341,92
809,00	25605,69
810,00	25393,64
811,00	24625,01
812,00	24962,28
813,00	25288,55
814,00	25830,39
815,00	26424,41
816,00	26517,10
817,00	26394,92
818,00	26557,36
819,00	26555,48
820,00	27100,13
821,00	26946,12
822,00	25813,07
823,00	25717,34
824,00	25231,44
825,00	24749,76
826,00	25376,09
827,00	26327,75
828,00	27005,10
829,00	27246,41
830,00	27344,95
831,00	26876,84
832,00	26575,61
833,00	27183,68
834,00	27717,09
835,00	27395,03
836,00	27003,23
837,00	25978,07
838,00	25637,53
839,00	25854,03
840,00	25924,94
841,00	26246,30
842,00	25966,61
843,00	26728,68
844,00	27128,92
845,00	27496,85
846,00	27561,91
847,00	27477,42
848,00	26736,88
849,00	26388,37
850,00	25823,83
851,00	26198,55
852,00	26200,19
853,00	25663,04
854,00	25877,90
855,00	26371,05
856,00	26809,43
857,00	26954,08
858,00	27274,73
859,00	27727,62
860,00	27755,48
861,00	27609,43
862,00	27296,26
863,00	27219,49
864,00	27179,47
865,00	27036,70
866,00	27097,55
867,00	26785,56
868,00	25929,39
869,00	25923,31
870,00	26080,12
871,00	26291,00
872,00	26410,37
873,00	27045,12
874,00	27409,55
875,00	27727,62
876,00	27640,09
877,00	27293,69
878,00	27136,87
879,00	26823,48
880,00	26720,26
881,00	26456,95
882,00	27063,15
883,00	27110,19
884,00	26716,28
885,00	26767,07
886,00	27022,19
887,00	27505,98
888,00	27495,68
889,00	27557,47
890,00	27507,15
891,00	27678,24
892,00	27374,44
893,00	27427,80
894,00	27752,67
895,00	27714,52
896,00	27454,95
897,00	27636,11
898,00	27521,66
899,00	26983,80
900,00	26342,50
901,00	26147,29
902,00	25969,65
903,00	26040,10
904,00	26291,94
905,00	26432,14
906,00	26192,47
907,00	26123,89
908,00	25627,46
909,00	26215,87
910,00	26454,84
911,00	26785,32
912,00	26899,07
913,00	27075,08
914,00	26750,68
915,00	26226,40
916,00	25035,77
917,00	24492,77
918,00	24774,34
919,00	25295,81
920,00	25566,84
921,00	25753,85
922,00	26025,82
923,00	25593,52
924,00	25353,85
925,00	25362,98
926,00	26146,59
927,00	26873,80
928,00	27526,57
929,00	27812,82
930,00	27878,12
931,00	27670,75
932,00	27063,61
933,00	25944,37
934,00	25289,72
935,00	25639,40
936,00	26021,14
937,00	26220,55
938,00	25970,12
939,00	25684,34
940,00	25783,81
941,00	25875,79
942,00	25936,18
943,00	26140,74
944,00	26362,16
945,00	26158,76
946,00	26331,26
947,00	26326,35
948,00	26515,23
949,00	26535,36
950,00	26622,19
951,00	26465,37
952,00	26321,66
953,00	26085,04
954,00	25973,86
955,00	25860,11
956,00	25520,03
957,00	24734,55
958,00	24314,42
959,00	24214,71
960,00	24233,20
961,00	24709,74
962,00	25083,99
963,00	25360,87
964,00	25909,73
965,00	26058,35
966,00	26216,34
967,00	26633,19
968,00	26805,45
969,00	26647,70
970,00	25977,14
971,00	25727,40
972,00	25431,09
973,00	25087,50
974,00	24475,68
975,00	24105,65
976,00	23811,91
977,00	23773,29
978,00	24107,52
979,00	24442,92
980,00	24667,84
981,00	25089,14
982,00	25264,68
983,00	25272,64
984,00	25273,10
985,00	25145,08
986,00	25242,21
987,00	25075,56
988,00	24953,15
989,00	24299,21
990,00	23558,90
991,00	23576,92
992,00	23739,12
993,00	23767,91
994,00	23715,48
995,00	23952,57
996,00	24153,16
997,00	24178,90
998,00	24720,27
999,00	24828,64
1000,00	24850,64
1001,00	24988,96
1002,00	25088,44
1003,00	25155,14
1004,00	25324,13
1005,00	25750,81
1006,00	25569,88
1007,00	25700,95
1008,00	25322,72
1009,00	25289,49
1010,00	25080,48
1011,00	24751,87
1012,00	24415,53
1013,00	24027,47
1014,00	23623,96
1015,00	23725,31
1016,00	23439,76
1017,00	23248,54
1018,00	23455,68
1019,00	23686,92
1020,00	23969,19
1021,00	24150,82
1022,00	24195,52
1023,00	24095,11
1024,00	24573,52
1025,00	24988,03
1026,00	25197,27
1027,00	25257,66
1028,00	25080,95
1029,00	24993,41
1030,00	24566,50
1031,00	24480,60
1032,00	24098,16
1033,00	23623,73
1034,00	23098,98
1035,00	22582,42
1036,00	22735,26
1037,00	23007,47
1038,00	23214,14
1039,00	23474,87
1040,00	23837,89
1041,00	24063,52
1042,00	24252,63
1043,00	24562,28
1044,00	24716,06
1045,00	25031,33
1046,00	25144,61
1047,00	25104,59
1048,00	25316,64
1049,00	25142,50
1050,00	25053,80
1051,00	24820,91
1052,00	24723,31
1053,00	24489,49
1054,00	24311,38
1055,00	24057,90
1056,00	23871,83
1057,00	23820,33
1058,00	24050,88
1059,00	24395,17
1060,00	24663,86
1061,00	24662,93
1062,00	25053,09
1063,00	25305,17
1064,00	25554,44
1065,00	25451,22
1066,00	25491,01
1067,00	25730,68
1068,00	25682,00
1069,00	25927,05
1070,00	25786,85
1071,00	25844,66
1072,00	26059,76
1073,00	25388,73
1074,00	25275,45
1075,00	24769,89
1076,00	24438,24
1077,00	24250,76
1078,00	24302,95
1079,00	24015,07
1080,00	24056,73
1081,00	24030,28
1082,00	23986,98
1083,00	24274,63
1084,00	24679,08
1085,00	24975,39
1086,00	25235,19
1087,00	25390,37
1088,00	25616,70
1089,00	25857,77
1090,00	25977,14
1091,00	26151,74
1092,00	26292,64
1093,00	26000,08
1094,00	25970,35
1095,00	25497,80
1096,00	25008,16
1097,00	24306,23
1098,00	23499,45
1099,00	22941,70
1100,00	22105,66
1101,00	21199,64
1102,00	21025,97
1103,00	20987,35
1104,00	21532,69
1105,00	21588,87
1106,00	21906,01
1107,00	22393,31
1108,00	23473,00
1109,00	24116,88
1110,00	24765,91
1111,00	25284,34
1112,00	25442,79
1113,00	25538,76
1114,00	25679,42
1115,00	25755,25
1116,00	25623,25
1117,00	25469,94
1118,00	25074,16
1119,00	24724,72
1120,00	24504,24
1121,00	24177,03
1122,00	24405,70
1123,00	24487,62
1124,00	25020,09
1125,00	25183,46
1126,00	25310,55
1127,00	25359,00
1128,00	25571,52
1129,00	25715,70
1130,00	26141,21
1131,00	26272,05
1132,00	26351,16
1133,00	26035,65
1134,00	25737,23
1135,00	25742,62
1136,00	25657,19
1137,00	25927,99
1138,00	25550,93
1139,00	25839,75
1140,00	26131,85
1141,00	26393,29
1142,00	26131,38
1143,00	25844,66
1144,00	25545,31
1145,00	25608,97
1146,00	25744,72
1147,00	26000,78
1148,00	26353,26
1149,00	26274,15
1150,00	26289,60
1151,00	26498,61
1152,00	26547,76
1153,00	26855,54
1154,00	26913,82
1155,00	27002,53
1156,00	26812,71
1157,00	26882,22
1158,00	27040,68
1159,00	27332,54
1160,00	27392,46
1161,00	27212,71
1162,00	27218,32
1163,00	27414,23
1164,00	27439,27
1165,00	27348,22
1166,00	27142,96
1167,00	26913,12
1168,00	26721,90
1169,00	26608,85
1170,00	26511,01
1171,00	26739,92
1172,00	26678,83
1173,00	26792,11
1174,00	26888,07
1175,00	26954,31
1176,00	26930,20
1177,00	27150,92
1178,00	27208,96
1179,00	27401,12
1180,00	27363,20
1181,00	27364,37
1182,00	27327,16
1183,00	27383,80
1184,00	27397,37
1185,00	27479,29
1186,00	27502,46
1187,00	27879,99
1188,00	27941,32
1189,00	28032,36
1190,00	28060,45
1191,00	27764,14
1192,00	27639,15
1193,00	27472,97
1194,00	27563,79
1195,00	27465,72
1196,00	27740,50
1197,00	27611,53
1198,00	27703,75
1199,00	27929,14
1200,00	27972,91
1201,00	28109,83
1202,00	28211,65
1203,00	28064,43
1204,00	28318,14
1205,00	28347,40
1206,00	28090,64
1207,00	28178,88
1208,00	28457,17
1209,00	28367,76
1210,00	28512,87
1211,00	28395,85
1212,00	28118,49
1213,00	28294,74
1214,00	28212,82
1215,00	28183,56
1216,00	27876,01
1217,00	27745,41
1218,00	27579,23
1219,00	27401,35
1220,00	27181,34
1221,00	27133,13
1222,00	27378,65
