SpectraSuite Datei
++++++++++++++++++++++++++++++++++++
Datum: Thu Sep 19 16:36:36 CEST 2024
Benutzer: Student
Dark-Spektrum vorhanden: Nein
Referenz-Spektrum vorhanden: Nein
Zahl der probierten Teilspektren: 1
Spektrometer: USB2+H15728
Integrationszeit (usec): 4000000 (USB2+H15728)
Spektren Durchschnitt berechnet: 150 (USB2+H15728)
Boxcar Glättung: 0 (USB2+H15728)
Dunkelstromkorrektur: Nein (USB2+H15728)
Puls/Lampe aktiviert: Nein (USB2+H15728)
Correct for Detector Non-linearity: Nein (USB2+H15728)
Streulichtkorrektur: Nein (USB2+H15728)
Anzahl Pixel in verarbeitetem Spektrum: 2048
>>>>>Begin Processed Spectral Data<<<<<
0,00	956,28
1,00	956,28
2,00	956,28
3,00	929,91
4,00	1424,20
5,00	1355,90
6,00	1283,49
7,00	1345,18
8,00	1734,20
9,00	1466,58
10,00	1460,78
11,00	1763,42
12,00	1377,09
13,00	2431,02
14,00	1377,65
15,00	1555,77
16,00	1502,94
17,00	1944,16
18,00	1501,84
19,00	2121,41
20,00	1517,21
21,00	1546,95
22,00	1692,99
23,00	1936,96
24,00	1572,54
25,00	1743,15
26,00	1847,49
27,00	2165,10
28,00	1766,17
29,00	1755,18
30,00	1943,22
31,00	1842,98
32,00	2528,09
33,00	1788,15
34,00	1951,69
35,00	1964,58
36,00	1922,80
37,00	1651,39
38,00	1857,79
39,00	2523,82
40,00	1706,16
41,00	2219,05
42,00	1854,87
43,00	2084,37
44,00	1731,11
45,00	1756,77
46,00	1637,45
47,00	2058,80
48,00	1758,38
49,00	2371,77
50,00	1826,80
51,00	2002,50
52,00	1789,07
53,00	2438,12
54,00	1874,21
55,00	1765,64
56,00	2253,95
57,00	1871,82
58,00	1841,64
59,00	1888,33
60,00	1536,53
61,00	1834,95
62,00	1722,92
63,00	1632,66
64,00	1716,77
65,00	1596,04
66,00	1726,36
67,00	1663,06
68,00	1736,49
69,00	1676,84
70,00	3923,81
71,00	1935,00
72,00	1726,66
73,00	1704,11
74,00	1717,24
75,00	1634,38
76,00	1610,62
77,00	1884,49
78,00	1733,43
79,00	1762,75
80,00	1750,58
81,00	1537,05
82,00	1927,12
83,00	1550,64
84,00	2505,11
85,00	1926,96
86,00	2704,47
87,00	2511,83
88,00	1604,22
89,00	1517,96
90,00	1716,88
91,00	2298,64
92,00	1835,48
93,00	2000,52
94,00	1638,67
95,00	1571,26
96,00	1641,59
97,00	3548,61
98,00	1745,68
99,00	1646,32
100,00	1878,42
101,00	2045,75
102,00	1658,02
103,00	1700,34
104,00	1695,16
105,00	2103,36
106,00	1902,15
107,00	1969,05
108,00	1985,04
109,00	1768,35
110,00	2514,62
111,00	2072,67
112,00	1719,08
113,00	1988,27
114,00	1697,79
115,00	1714,79
116,00	1753,51
117,00	1652,37
118,00	1766,17
119,00	2603,42
120,00	1753,28
121,00	1644,37
122,00	1854,94
123,00	1600,60
124,00	1645,13
125,00	1651,11
126,00	1725,61
127,00	1946,70
128,00	1753,90
129,00	1964,96
130,00	1843,34
131,00	2049,28
132,00	1678,62
133,00	2143,81
134,00	1835,51
135,00	1716,70
136,00	1622,90
137,00	2044,26
138,00	2482,47
139,00	1937,82
140,00	1877,86
141,00	2219,51
142,00	1814,12
143,00	1627,86
144,00	1822,12
145,00	1725,27
146,00	1799,97
147,00	2335,92
148,00	3669,66
149,00	2138,88
150,00	1604,89
151,00	1993,89
152,00	1646,55
153,00	1678,54
154,00	1710,29
155,00	1610,01
156,00	2074,15
157,00	1716,97
158,00	1917,41
159,00	2123,47
160,00	2095,95
161,00	2245,10
162,00	1603,02
163,00	1728,70
164,00	1623,15
165,00	1602,30
166,00	1727,35
167,00	1945,55
168,00	1595,82
169,00	1653,92
170,00	1745,81
171,00	1529,52
172,00	2136,86
173,00	1540,74
174,00	1704,89
175,00	1759,72
176,00	1720,20
177,00	1718,39
178,00	1920,91
179,00	1639,95
180,00	1937,53
181,00	1689,60
182,00	1623,29
183,00	2607,34
184,00	1603,88
185,00	1583,06
186,00	1552,20
187,00	1738,49
188,00	2108,15
189,00	1734,40
190,00	1553,60
191,00	1610,62
192,00	1907,26
193,00	1614,97
194,00	1767,40
195,00	1979,92
196,00	2053,54
197,00	1850,35
198,00	2493,95
199,00	1674,73
200,00	1553,24
201,00	2055,83
202,00	1870,15
203,00	1837,76
204,00	1784,58
205,00	1909,71
206,00	1730,51
207,00	1799,97
208,00	1870,85
209,00	1807,55
210,00	1982,65
211,00	2033,75
212,00	1596,01
213,00	1853,58
214,00	1932,99
215,00	1813,56
216,00	1758,62
217,00	1795,18
218,00	2232,17
219,00	1695,80
220,00	2417,15
221,00	1886,11
222,00	2041,45
223,00	1794,82
224,00	1816,57
225,00	1552,04
226,00	1832,14
227,00	1619,59
228,00	1701,80
229,00	1821,87
230,00	1664,53
231,00	1966,96
232,00	1900,39
233,00	1768,13
234,00	1845,89
235,00	1822,04
236,00	2448,86
237,00	1795,53
238,00	1637,11
239,00	1635,27
240,00	1932,92
241,00	2045,24
242,00	1692,25
243,00	2051,78
244,00	1763,08
245,00	1593,17
246,00	1603,56
247,00	1786,25
248,00	1960,73
249,00	2106,34
250,00	2154,03
251,00	1749,80
252,00	2058,91
253,00	1842,94
254,00	2030,52
255,00	1619,92
256,00	1899,34
257,00	1837,02
258,00	1739,16
259,00	1740,73
260,00	1578,11
261,00	1752,72
262,00	1531,33
263,00	1600,43
264,00	1852,92
265,00	1784,92
266,00	1689,10
267,00	1714,80
268,00	1936,82
269,00	1857,82
270,00	1792,57
271,00	2049,01
272,00	1933,75
273,00	1745,29
274,00	1718,27
275,00	1790,29
276,00	1631,23
277,00	1831,75
278,00	1742,73
279,00	1941,93
280,00	1643,31
281,00	1784,80
282,00	1599,19
283,00	1883,60
284,00	1786,42
285,00	1818,69
286,00	1975,46
287,00	1787,97
288,00	1562,25
289,00	1719,40
290,00	2080,50
291,00	1641,87
292,00	2024,74
293,00	1729,42
294,00	1877,28
295,00	1834,92
296,00	1581,39
297,00	1608,96
298,00	1827,37
299,00	1818,32
300,00	1805,96
301,00	1884,65
302,00	1731,93
303,00	2013,41
304,00	1670,52
305,00	2007,29
306,00	1785,10
307,00	1627,06
308,00	1780,51
309,00	1797,20
310,00	1744,88
311,00	1636,69
312,00	1781,48
313,00	2220,04
314,00	1970,15
315,00	1632,87
316,00	1805,94
317,00	1575,16
318,00	1591,38
319,00	1843,59
320,00	1712,35
321,00	1642,79
322,00	1579,11
323,00	2114,22
324,00	1759,37
325,00	2026,19
326,00	1593,94
327,00	1773,81
328,00	1932,56
329,00	1986,49
330,00	1722,88
331,00	1695,08
332,00	1616,23
333,00	1932,55
334,00	1761,63
335,00	1811,26
336,00	1895,04
337,00	1763,73
338,00	2042,13
339,00	1603,14
340,00	1587,93
341,00	1657,27
342,00	1603,58
343,00	2196,23
344,00	2533,18
345,00	1698,12
346,00	1571,26
347,00	1923,50
348,00	1530,21
349,00	2267,89
350,00	1754,43
351,00	1559,72
352,00	2470,39
353,00	1976,07
354,00	1527,79
355,00	1698,60
356,00	1808,16
357,00	2088,19
358,00	1602,69
359,00	1667,18
360,00	1817,38
361,00	1725,19
362,00	2116,64
363,00	1918,13
364,00	2123,05
365,00	1728,72
366,00	1828,99
367,00	1641,12
368,00	1691,38
369,00	1667,54
370,00	1576,44
371,00	1585,06
372,00	2254,76
373,00	1651,31
374,00	1741,66
375,00	1771,89
376,00	1588,88
377,00	4192,12
378,00	1786,66
379,00	1649,86
380,00	1598,99
381,00	2486,15
382,00	1971,73
383,00	1697,25
384,00	1620,43
385,00	1588,54
386,00	1796,11
387,00	1798,62
388,00	1867,06
389,00	2149,98
390,00	1931,60
391,00	1791,71
392,00	1618,51
393,00	1787,84
394,00	1783,99
395,00	1712,98
396,00	1912,97
397,00	1641,20
398,00	1926,59
399,00	1689,94
400,00	1959,34
401,00	1639,45
402,00	1718,28
403,00	1700,15
404,00	1823,82
405,00	1942,35
406,00	1635,94
407,00	2022,82
408,00	1704,67
409,00	2101,88
410,00	1878,42
411,00	1701,91
412,00	1587,12
413,00	1572,03
414,00	2387,77
415,00	1930,63
416,00	2152,22
417,00	1703,32
418,00	1652,20
419,00	1714,79
420,00	1942,88
421,00	1728,50
422,00	1919,04
423,00	1607,76
424,00	1581,73
425,00	1602,56
426,00	1579,96
427,00	1692,68
428,00	1674,12
429,00	1575,90
430,00	1591,99
431,00	1683,63
432,00	1638,77
433,00	1570,83
434,00	2058,78
435,00	1941,97
436,00	2269,37
437,00	1811,73
438,00	1737,44
439,00	1692,93
440,00	1839,38
441,00	1698,26
442,00	1953,47
443,00	1662,37
444,00	1651,72
445,00	1681,22
446,00	1929,52
447,00	1707,90
448,00	2202,94
449,00	1724,37
450,00	1533,96
451,00	2324,70
452,00	2145,54
453,00	1704,75
454,00	1929,02
455,00	1660,17
456,00	1752,62
457,00	3044,63
458,00	1706,22
459,00	1656,96
460,00	1621,55
461,00	1568,05
462,00	1569,88
463,00	1723,98
464,00	1784,13
465,00	1565,54
466,00	1831,92
467,00	1786,64
468,00	1644,44
469,00	1879,36
470,00	2149,77
471,00	1800,73
472,00	2238,47
473,00	1589,35
474,00	1588,63
475,00	1873,24
476,00	1595,86
477,00	1631,56
478,00	1962,10
479,00	1824,79
480,00	1789,98
481,00	1507,90
482,00	1760,88
483,00	2231,73
484,00	1729,30
485,00	2164,64
486,00	1556,46
487,00	1707,98
488,00	1898,50
489,00	1650,53
490,00	1901,22
491,00	1922,91
492,00	1790,04
493,00	1606,62
494,00	1797,89
495,00	2174,19
496,00	1849,40
497,00	1638,30
498,00	1789,12
499,00	1486,33
500,00	1524,36
501,00	1613,42
502,00	1854,52
503,00	1751,61
504,00	1811,79
505,00	1909,77
506,00	2082,95
507,00	2196,37
508,00	2099,59
509,00	1566,86
510,00	1695,92
511,00	1938,68
512,00	1777,57
513,00	2076,37
514,00	2792,57
515,00	1690,33
516,00	1756,60
517,00	1674,14
518,00	1713,47
519,00	2175,90
520,00	2127,78
521,00	1519,99
522,00	1875,35
523,00	2497,35
524,00	1935,89
525,00	1601,78
526,00	1621,37
527,00	1733,01
528,00	1872,29
529,00	1868,34
530,00	1736,97
531,00	1759,02
532,00	1512,75
533,00	1888,95
534,00	1663,25
535,00	1879,81
536,00	1953,46
537,00	1891,11
538,00	2153,04
539,00	1866,83
540,00	1600,71
541,00	2005,29
542,00	1585,88
543,00	1847,54
544,00	1925,50
545,00	1710,68
546,00	1571,87
547,00	2027,08
548,00	1743,17
549,00	1564,99
550,00	1715,89
551,00	1760,58
552,00	2727,66
553,00	2028,06
554,00	1890,12
555,00	2034,55
556,00	1646,47
557,00	1846,40
558,00	1556,22
559,00	1686,09
560,00	2158,32
561,00	2201,66
562,00	1983,26
563,00	1703,69
564,00	1814,46
565,00	1902,25
566,00	1763,83
567,00	1930,13
568,00	1837,12
569,00	1713,55
570,00	1822,12
571,00	1834,59
572,00	1601,13
573,00	1755,90
574,00	1691,57
575,00	1891,53
576,00	2088,26
577,00	1844,76
578,00	1599,85
579,00	1581,31
580,00	1755,07
581,00	1861,63
582,00	1665,68
583,00	1631,43
584,00	1554,26
585,00	2046,53
586,00	1625,49
587,00	1749,50
588,00	1638,56
589,00	1706,36
590,00	2003,12
591,00	1590,60
592,00	1863,69
593,00	1819,36
594,00	1678,21
595,00	1767,49
596,00	1939,59
597,00	1848,23
598,00	1521,85
599,00	1823,51
600,00	1790,24
601,00	16281,89
602,00	2597,26
603,00	1850,69
604,00	1780,87
605,00	1823,25
606,00	1770,26
607,00	1701,99
608,00	1778,73
609,00	1857,00
610,00	1751,49
611,00	1576,73
612,00	1913,92
613,00	1652,98
614,00	1935,58
615,00	1789,40
616,00	1873,66
617,00	2133,43
618,00	1859,68
619,00	1563,01
620,00	1675,28
621,00	1832,89
622,00	1605,09
623,00	1797,97
624,00	1571,75
625,00	2524,17
626,00	1604,62
627,00	2063,92
628,00	1730,55
629,00	1924,95
630,00	1689,01
631,00	1599,54
632,00	1871,40
633,00	1609,74
634,00	1767,78
635,00	2136,07
636,00	1830,44
637,00	1698,11
638,00	1612,21
639,00	1747,62
640,00	1826,04
641,00	1754,17
642,00	1811,04
643,00	1745,42
644,00	1605,15
645,00	1774,78
646,00	1568,99
647,00	1614,36
648,00	1592,03
649,00	1730,69
650,00	1717,16
651,00	1707,67
652,00	1826,07
653,00	1701,24
654,00	1690,18
655,00	1638,13
656,00	1965,11
657,00	1748,61
658,00	2027,06
659,00	1926,67
660,00	3359,73
661,00	2084,23
662,00	1823,76
663,00	1874,85
664,00	1951,09
665,00	1718,30
666,00	2180,43
667,00	1637,02
668,00	1554,32
669,00	1999,25
670,00	1908,63
671,00	1813,29
672,00	1697,34
673,00	2044,49
674,00	1869,40
675,00	1666,32
676,00	2172,14
677,00	1795,33
678,00	1675,26
679,00	1803,49
680,00	1716,13
681,00	1676,70
682,00	1883,60
683,00	1731,14
684,00	1723,91
685,00	1910,81
686,00	2002,09
687,00	2323,81
688,00	2119,37
689,00	3175,56
690,00	4559,47
691,00	4482,66
692,00	3502,97
693,00	2786,94
694,00	2214,01
695,00	2474,34
696,00	2065,21
697,00	1821,44
698,00	1874,21
699,00	3167,56
700,00	1863,05
701,00	2126,13
702,00	2173,56
703,00	1785,31
704,00	2194,16
705,00	1870,12
706,00	2052,98
707,00	1858,49
708,00	2118,00
709,00	1772,32
710,00	1716,19
711,00	2030,02
712,00	1800,51
713,00	1803,87
714,00	1800,31
715,00	1770,52
716,00	1980,12
717,00	1913,37
718,00	1762,28
719,00	1710,37
720,00	2105,62
721,00	2033,49
722,00	1913,65
723,00	2748,71
724,00	2327,15
725,00	2256,26
726,00	2031,98
727,00	1852,41
728,00	1944,88
729,00	2647,08
730,00	1819,33
731,00	1997,01
732,00	1960,01
733,00	1772,60
734,00	2330,85
735,00	1967,66
736,00	1864,99
737,00	1811,20
738,00	1872,21
739,00	1988,60
740,00	2093,66
741,00	2370,56
742,00	3066,82
743,00	2285,83
744,00	2231,31
745,00	2048,31
746,00	2277,03
747,00	2320,05
748,00	2686,92
749,00	2850,68
750,00	2577,18
751,00	2916,06
752,00	3961,87
753,00	5611,90
754,00	7821,71
755,00	10502,25
756,00	13523,04
757,00	21686,39
758,00	39790,62
759,00	48073,48
760,00	35984,33
761,00	39681,63
762,00	22664,53
763,00	13880,17
764,00	8802,96
765,00	6125,35
766,00	3905,22
767,00	3269,59
768,00	2535,55
769,00	2273,58
770,00	2415,21
771,00	2206,28
772,00	2213,65
773,00	2252,02
774,00	2245,63
775,00	2360,40
776,00	1985,02
777,00	2029,99
778,00	2033,63
779,00	1971,23
780,00	2064,93
781,00	1850,66
782,00	2287,56
783,00	2037,22
784,00	2272,86
785,00	2622,84
786,00	2052,56
787,00	2054,58
788,00	2118,26
789,00	2089,08
790,00	2038,11
791,00	2051,14
792,00	2179,80
793,00	2289,68
794,00	3027,59
795,00	3482,20
796,00	3413,62
797,00	3662,05
798,00	3083,81
799,00	2532,85
800,00	2518,98
801,00	2481,87
802,00	2838,23
803,00	2374,97
804,00	2119,25
805,00	1919,32
806,00	2035,02
807,00	1860,46
808,00	1774,36
809,00	1779,67
810,00	2050,32
811,00	1816,77
812,00	2190,46
813,00	1997,99
814,00	2194,89
815,00	2024,77
816,00	2329,39
817,00	2155,79
818,00	1950,84
819,00	2246,48
820,00	1893,37
821,00	2359,21
822,00	2012,10
823,00	2000,69
824,00	2138,22
825,00	2208,65
826,00	2187,48
827,00	2798,06
828,00	2864,08
829,00	4104,36
830,00	5818,63
831,00	12563,68
832,00	11555,32
833,00	12854,97
834,00	13228,13
835,00	7941,77
836,00	5879,10
837,00	4469,22
838,00	3196,83
839,00	2619,48
840,00	2217,95
841,00	16103,29
842,00	2763,55
843,00	2531,57
844,00	2152,79
845,00	2454,60
846,00	2101,44
847,00	1887,97
848,00	2005,81
849,00	1943,96
850,00	2012,92
851,00	1804,82
852,00	1691,02
853,00	2090,22
854,00	1813,82
855,00	1807,39
856,00	1778,46
857,00	2080,08
858,00	1905,65
859,00	2293,38
860,00	2253,25
861,00	1916,38
862,00	1925,32
863,00	1882,60
864,00	2162,69
865,00	1983,06
866,00	2550,84
867,00	2630,73
868,00	3193,75
869,00	4973,84
870,00	3950,20
871,00	5052,06
872,00	4109,04
873,00	3056,24
874,00	2590,94
875,00	2485,84
876,00	2223,95
877,00	1807,38
878,00	1950,51
879,00	2160,55
880,00	2050,57
881,00	1733,24
882,00	2238,75
883,00	1849,30
884,00	1734,68
885,00	1931,46
886,00	1901,36
887,00	2003,23
888,00	1840,41
889,00	1798,47
890,00	2219,47
891,00	2463,20
892,00	2016,98
893,00	1777,50
894,00	1700,84
895,00	1796,61
896,00	1879,17
897,00	1722,32
898,00	2080,22
899,00	1874,24
900,00	2169,94
901,00	1969,45
902,00	1970,65
903,00	2328,35
904,00	2435,78
905,00	2947,51
906,00	4401,83
907,00	7438,47
908,00	7168,98
909,00	7077,00
910,00	8333,02
911,00	5679,43
912,00	4315,14
913,00	3440,01
914,00	2787,75
915,00	2418,35
916,00	2402,53
917,00	1943,69
918,00	1750,74
919,00	1735,66
920,00	1833,12
921,00	1887,66
922,00	1990,61
923,00	2041,98
924,00	1936,98
925,00	1875,86
926,00	1957,83
927,00	1912,55
928,00	1876,50
929,00	1940,04
930,00	1866,72
931,00	2087,66
932,00	1774,48
933,00	2268,65
934,00	1744,56
935,00	2199,82
936,00	1920,24
937,00	1791,66
938,00	1726,30
939,00	2285,85
940,00	1773,00
941,00	1758,52
942,00	2052,59
943,00	2069,80
944,00	3054,21
945,00	2721,23
946,00	3879,50
947,00	5426,95
948,00	4755,41
949,00	5754,86
950,00	5124,48
951,00	3669,23
952,00	2893,29
953,00	2452,96
954,00	2208,95
955,00	2284,04
956,00	1861,10
957,00	1778,65
958,00	1877,14
959,00	1960,59
960,00	1655,99
961,00	2101,99
962,00	1827,26
963,00	1989,94
964,00	2979,42
965,00	1893,27
966,00	1891,92
967,00	2059,20
968,00	1747,35
969,00	2597,73
970,00	1890,42
971,00	2106,78
972,00	1838,44
973,00	2056,52
974,00	1769,15
975,00	1834,51
976,00	1669,00
977,00	2088,73
978,00	1933,10
979,00	1811,45
980,00	1806,77
981,00	2075,12
982,00	1875,66
983,00	1900,62
984,00	2209,56
985,00	2648,16
986,00	3468,11
987,00	5068,99
988,00	4952,62
989,00	4430,99
990,00	4944,55
991,00	3751,79
992,00	3129,11
993,00	2470,03
994,00	2203,38
995,00	2180,19
996,00	1848,63
997,00	2111,83
998,00	1907,76
999,00	2402,93
1000,00	1653,70
1001,00	1949,71
1002,00	1702,08
1003,00	1669,72
1004,00	2168,69
1005,00	1678,01
1006,00	1729,28
1007,00	1906,73
1008,00	1777,82
1009,00	1722,93
1010,00	1768,79
1011,00	1699,99
1012,00	2086,10
1013,00	1675,00
1014,00	1746,54
1015,00	1930,58
1016,00	1935,70
1017,00	1680,43
1018,00	2085,78
1019,00	2011,27
1020,00	1811,82
1021,00	1812,39
1022,00	1950,29
1023,00	1860,15
1024,00	2235,48
1025,00	2017,57
1026,00	2384,04
1027,00	2905,78
1028,00	4996,05
1029,00	5321,93
1030,00	4673,68
1031,00	5973,81
1032,00	4871,26
1033,00	3879,63
1034,00	2977,93
1035,00	2952,02
1036,00	2423,55
1037,00	2218,69
1038,00	1982,25
1039,00	1760,25
1040,00	1867,09
1041,00	1847,10
1042,00	2137,61
1043,00	1995,15
1044,00	3497,07
1045,00	2058,31
1046,00	1734,34
1047,00	1697,53
1048,00	1955,81
1049,00	1852,33
1050,00	1922,24
1051,00	1840,10
1052,00	1945,33
1053,00	1948,61
1054,00	1702,99
1055,00	2037,89
1056,00	2092,03
1057,00	1792,43
1058,00	1820,92
1059,00	1947,70
1060,00	1789,43
1061,00	1834,89
1062,00	1685,81
1063,00	1603,89
1064,00	2151,83
1065,00	1854,02
1066,00	1758,87
1067,00	2213,09
1068,00	2308,88
1069,00	2594,28
1070,00	2822,19
1071,00	3351,23
1072,00	2880,29
1073,00	2953,30
1074,00	2997,63
1075,00	3106,58
1076,00	2193,13
1077,00	2067,93
1078,00	2049,67
1079,00	1762,84
1080,00	2459,20
1081,00	2135,36
1082,00	1759,90
1083,00	2015,39
1084,00	1815,34
1085,00	2095,09
1086,00	1630,29
1087,00	2045,83
1088,00	1975,65
1089,00	1780,79
1090,00	1755,75
1091,00	2099,65
1092,00	2192,80
1093,00	2620,60
1094,00	1943,13
1095,00	1859,32
1096,00	1823,60
1097,00	1959,98
1098,00	1627,55
1099,00	2169,99
1100,00	1802,15
1101,00	1847,45
1102,00	1808,91
1103,00	2170,68
1104,00	2077,13
1105,00	2424,20
1106,00	1882,04
1107,00	1996,34
1108,00	1998,26
1109,00	1820,14
1110,00	1931,61
1111,00	2765,70
1112,00	2637,89
1113,00	3029,93
1114,00	4729,40
1115,00	5109,14
1116,00	4929,04
1117,00	5878,07
1118,00	5169,53
1119,00	3885,66
1120,00	3425,14
1121,00	4069,30
1122,00	2452,19
1123,00	2070,86
1124,00	2283,29
1125,00	1749,57
1126,00	1909,55
1127,00	1928,10
1128,00	2735,51
1129,00	1735,43
1130,00	1660,33
1131,00	2052,48
1132,00	1849,87
1133,00	1959,34
1134,00	2397,74
1135,00	2038,75
1136,00	2206,70
1137,00	2032,30
1138,00	1829,14
1139,00	1859,12
1140,00	1804,55
1141,00	1746,41
1142,00	1705,16
1143,00	1828,16
1144,00	2153,18
1145,00	2385,33
1146,00	1897,71
1147,00	2072,70
1148,00	1740,38
1149,00	1695,17
1150,00	1833,48
1151,00	2114,71
1152,00	2023,74
1153,00	1865,56
1154,00	2152,19
1155,00	2045,50
1156,00	2347,99
1157,00	2223,82
1158,00	2323,57
1159,00	2100,29
1160,00	2029,71
1161,00	2287,11
1162,00	2364,46
1163,00	1989,77
1164,00	1767,63
1165,00	2257,34
1166,00	2318,29
1167,00	1861,08
1168,00	1966,38
1169,00	1788,01
1170,00	1820,58
1171,00	2250,27
1172,00	1765,75
1173,00	1888,28
1174,00	1833,23
1175,00	1705,25
1176,00	1737,50
1177,00	2028,81
1178,00	2452,90
1179,00	2097,65
1180,00	1814,60
1181,00	1930,75
1182,00	1832,20
1183,00	1974,93
1184,00	1751,84
1185,00	1862,15
1186,00	2015,20
1187,00	1931,11
1188,00	2059,03
1189,00	1677,70
1190,00	1779,24
1191,00	1994,74
1192,00	2234,21
1193,00	1810,59
1194,00	1813,95
1195,00	1984,32
1196,00	2174,84
1197,00	1752,53
1198,00	2241,91
1199,00	2158,27
1200,00	2013,06
1201,00	1894,37
1202,00	2338,60
1203,00	2723,73
1204,00	3659,07
1205,00	5235,62
1206,00	4326,14
1207,00	5068,37
1208,00	5767,02
1209,00	4083,99
1210,00	3237,16
1211,00	2933,69
1212,00	2420,61
1213,00	2066,43
1214,00	1849,05
1215,00	2010,15
1216,00	1685,92
1217,00	1997,69
1218,00	1785,42
1219,00	1801,62
1220,00	1816,85
1221,00	2289,90
1222,00	2083,53
1223,00	1718,62
1224,00	1820,14
1225,00	1717,92
1226,00	1728,39
1227,00	1890,67
1228,00	1709,00
1229,00	1813,71
1230,00	1722,70
1231,00	1780,37
1232,00	1673,90
1233,00	1700,59
1234,00	1836,57
1235,00	1670,81
1236,00	2016,89
1237,00	1873,94
1238,00	1837,26
1239,00	1850,88
1240,00	1608,74
1241,00	1993,06
1242,00	1834,06
1243,00	2058,59
1244,00	1642,54
1245,00	1853,13
1246,00	2062,36
1247,00	2370,71
1248,00	2270,43
1249,00	2181,32
1250,00	1929,07
1251,00	2058,19
1252,00	1917,91
1253,00	2139,94
1254,00	1806,18
1255,00	1968,23
1256,00	1812,07
1257,00	1897,60
1258,00	1691,12
1259,00	1575,76
1260,00	1997,80
1261,00	1842,73
1262,00	1714,04
1263,00	1737,08
1264,00	1915,82
1265,00	1685,89
1266,00	2483,64
1267,00	1829,19
1268,00	1670,22
1269,00	1746,82
1270,00	2018,26
1271,00	1722,87
1272,00	1780,51
1273,00	1936,04
1274,00	1786,69
1275,00	1719,79
1276,00	2471,62
1277,00	4506,58
1278,00	2280,35
