SpectraSuite Datei
++++++++++++++++++++++++++++++++++++
Datum: Wed Sep 18 17:07:05 CEST 2024
Benutzer: Student
Dark-Spektrum vorhanden: Nein
Referenz-Spektrum vorhanden: Nein
Zahl der probierten Teilspektren: 1
Spektrometer: USB2+H15728
Integrationszeit (usec): 1000 (USB2+H15728)
Spektren Durchschnitt berechnet: 150 (USB2+H15728)
Boxcar Glättung: 0 (USB2+H15728)
Dunkelstromkorrektur: Nein (USB2+H15728)
Puls/Lampe aktiviert: Nein (USB2+H15728)
Correct for Detector Non-linearity: Nein (USB2+H15728)
Streulichtkorrektur: Nein (USB2+H15728)
Anzahl Pixel in verarbeitetem Spektrum: 2048
>>>>>Begin Processed Spectral Data<<<<<
0,00	1033,56
1,00	1033,56
2,00	1033,56
3,00	1002,95
4,00	1002,14
5,00	1007,34
6,00	1006,82
7,00	1015,46
8,00	1021,86
9,00	1033,92
10,00	1047,08
11,00	1065,47
12,00	1076,77
13,00	1090,44
14,00	1108,46
15,00	1131,01
16,00	1140,50
17,00	1156,54
18,00	1175,76
19,00	1193,52
20,00	1208,20
21,00	1229,81
22,00	1237,99
23,00	1250,63
24,00	1258,30
25,00	1278,95
26,00	1286,92
27,00	1302,82
28,00	1307,20
29,00	1312,35
30,00	1328,04
31,00	1330,08
32,00	1337,32
33,00	1342,50
34,00	1349,04
35,00	1347,90
36,00	1349,74
37,00	1360,29
38,00	1359,12
39,00	1358,57
40,00	1361,54
41,00	1357,01
42,00	1359,54
43,00	1360,85
44,00	1355,51
45,00	1352,14
46,00	1358,93
47,00	1355,65
48,00	1361,71
49,00	1356,39
50,00	1355,14
51,00	1349,46
52,00	1340,77
53,00	1341,50
54,00	1342,53
55,00	1341,20
56,00	1341,03
57,00	1334,70
58,00	1336,46
59,00	1335,70
60,00	1335,90
61,00	1330,77
62,00	1334,28
63,00	1324,28
64,00	1327,66
65,00	1326,46
66,00	1333,06
67,00	1324,29
68,00	1327,08
69,00	1327,54
70,00	1320,33
71,00	1321,97
72,00	1327,41
73,00	1324,07
74,00	1327,04
75,00	1325,49
76,00	1326,33
77,00	1325,29
78,00	1325,09
79,00	1328,92
80,00	1330,25
81,00	1325,18
82,00	1328,96
83,00	1329,41
84,00	1324,35
85,00	1327,18
86,00	1328,14
87,00	1325,87
88,00	1326,18
89,00	1331,53
90,00	1328,04
91,00	1328,52
92,00	1331,59
93,00	1333,42
94,00	1332,40
95,00	1330,47
96,00	1330,58
97,00	1332,81
98,00	1333,01
99,00	1331,13
100,00	1334,31
101,00	1335,77
102,00	1329,92
103,00	1332,64
104,00	1335,24
105,00	1336,85
106,00	1330,02
107,00	1331,80
108,00	1338,91
109,00	1340,86
110,00	1344,56
111,00	1339,36
112,00	1335,87
113,00	1335,93
114,00	1335,65
115,00	1332,42
116,00	1335,34
117,00	1331,03
118,00	1339,00
119,00	1336,59
120,00	1334,90
121,00	1333,67
122,00	1338,44
123,00	1336,38
124,00	1334,48
125,00	1341,80
126,00	1335,90
127,00	1337,66
128,00	1332,94
129,00	1336,54
130,00	1341,24
131,00	1339,89
132,00	1343,98
133,00	1343,65
134,00	1339,50
135,00	1341,58
136,00	1339,43
137,00	1339,89
138,00	1339,61
139,00	1337,99
140,00	1335,60
141,00	1340,25
142,00	1341,75
143,00	1343,94
144,00	1340,72
145,00	1337,98
146,00	1345,90
147,00	1341,66
148,00	1338,41
149,00	1342,91
150,00	1345,53
151,00	1340,78
152,00	1344,73
153,00	1338,37
154,00	1339,86
155,00	1343,25
156,00	1339,47
157,00	1341,35
158,00	1343,31
159,00	1338,55
160,00	1341,97
161,00	1339,71
162,00	1339,10
163,00	1345,03
164,00	1347,42
165,00	1339,44
166,00	1339,66
167,00	1347,96
168,00	1345,25
169,00	1339,57
170,00	1345,14
171,00	1342,22
172,00	1341,92
173,00	1341,72
174,00	1339,85
175,00	1345,28
176,00	1338,54
177,00	1339,61
178,00	1342,87
179,00	1343,94
180,00	1343,73
181,00	1342,22
182,00	1345,59
183,00	1343,08
184,00	1341,80
185,00	1340,99
186,00	1348,34
187,00	1340,08
188,00	1344,15
189,00	1344,62
190,00	1341,25
191,00	1345,31
192,00	1343,20
193,00	1341,36
194,00	1340,32
195,00	1345,06
196,00	1342,73
197,00	1344,14
198,00	1341,16
199,00	1342,06
200,00	1344,36
201,00	1346,74
202,00	1346,96
203,00	1346,87
204,00	1349,99
205,00	1346,18
206,00	1345,59
207,00	1347,13
208,00	1346,42
209,00	1342,66
210,00	1338,38
211,00	1344,72
212,00	1344,00
213,00	1346,17
214,00	1347,01
215,00	1345,84
216,00	1344,92
217,00	1341,95
218,00	1349,29
219,00	1347,88
220,00	1344,34
221,00	1344,43
222,00	1344,00
223,00	1343,87
224,00	1343,26
225,00	1348,10
226,00	1343,73
227,00	1351,61
228,00	1350,15
229,00	1346,32
230,00	1346,93
231,00	1349,08
232,00	1344,42
233,00	1346,93
234,00	1340,14
235,00	1343,94
236,00	1349,10
237,00	1347,88
238,00	1345,96
239,00	1350,97
240,00	1349,86
241,00	1351,49
242,00	1346,54
243,00	1351,11
244,00	1349,43
245,00	1345,54
246,00	1349,85
247,00	1348,07
248,00	1348,79
249,00	1345,45
250,00	1349,86
251,00	1348,16
252,00	1348,29
253,00	1352,17
254,00	1349,91
255,00	1342,00
256,00	1349,86
257,00	1348,93
258,00	1342,97
259,00	1352,10
260,00	1348,21
261,00	1343,09
262,00	1348,52
263,00	1348,63
264,00	1347,99
265,00	1347,49
266,00	1346,78
267,00	1344,62
268,00	1352,08
269,00	1348,35
270,00	1347,40
271,00	1352,88
272,00	1346,09
273,00	1349,58
274,00	1355,87
275,00	1351,75
276,00	1352,52
277,00	1353,69
278,00	1348,10
279,00	1350,21
280,00	1350,08
281,00	1353,64
282,00	1349,63
283,00	1342,08
284,00	1350,74
285,00	1350,65
286,00	1348,32
287,00	1345,06
288,00	1351,53
289,00	1350,94
290,00	1346,98
291,00	1351,22
292,00	1348,79
293,00	1352,75
294,00	1350,44
295,00	1352,02
296,00	1347,15
297,00	1348,01
298,00	1349,90
299,00	1349,52
300,00	1352,67
301,00	1351,92
302,00	1350,38
303,00	1346,09
304,00	1352,81
305,00	1347,20
306,00	1348,93
307,00	1346,53
308,00	1351,69
309,00	1352,30
310,00	1348,15
311,00	1349,05
312,00	1352,05
313,00	1353,47
314,00	1348,90
315,00	1351,38
316,00	1349,72
317,00	1346,65
318,00	1354,17
319,00	1355,06
320,00	1350,18
321,00	1346,98
322,00	1351,53
323,00	1354,25
324,00	1353,92
325,00	1355,64
326,00	1350,63
327,00	1349,99
328,00	1356,12
329,00	1352,41
330,00	1346,65
331,00	1351,64
332,00	1355,54
333,00	1351,08
334,00	1350,85
335,00	1349,60
336,00	1350,91
337,00	1354,03
338,00	1352,02
339,00	1347,09
340,00	1353,88
341,00	1356,98
342,00	1348,66
343,00	1356,12
344,00	1353,53
345,00	1352,13
346,00	1352,74
347,00	1355,40
348,00	1350,55
349,00	1344,58
350,00	1350,83
351,00	1352,85
352,00	1356,28
353,00	1347,68
354,00	1350,66
355,00	1356,40
356,00	1354,89
357,00	1348,18
358,00	1354,45
359,00	1353,22
360,00	1352,44
361,00	1356,75
362,00	1349,58
363,00	1352,75
364,00	1355,56
365,00	1351,05
366,00	1352,94
367,00	1351,99
368,00	1350,89
369,00	1351,97
370,00	1354,80
371,00	1353,13
372,00	1351,83
373,00	1356,23
374,00	1350,94
375,00	1354,98
376,00	1357,62
377,00	1354,75
378,00	1351,69
379,00	1356,06
380,00	1354,14
381,00	1356,23
382,00	1352,36
383,00	1354,31
384,00	1354,48
385,00	1353,41
386,00	1350,36
387,00	1355,11
388,00	1356,03
389,00	1350,77
390,00	1356,96
391,00	1350,57
392,00	1354,37
393,00	1349,58
394,00	1353,50
395,00	1350,77
396,00	1352,88
397,00	1353,24
398,00	1356,09
399,00	1353,75
400,00	1354,67
401,00	1355,65
402,00	1361,26
403,00	1353,94
404,00	1359,41
405,00	1351,88
406,00	1348,48
407,00	1356,71
408,00	1359,80
409,00	1356,64
410,00	1356,89
411,00	1355,05
412,00	1352,85
413,00	1358,23
414,00	1354,12
415,00	1351,64
416,00	1352,55
417,00	1357,62
418,00	1358,57
419,00	1356,11
420,00	1352,14
421,00	1352,50
422,00	1357,40
423,00	1355,45
424,00	1352,89
425,00	1351,72
426,00	1352,03
427,00	1355,30
428,00	1355,59
429,00	1355,61
430,00	1354,89
431,00	1351,58
432,00	1352,49
433,00	1357,42
434,00	1357,53
435,00	1356,12
436,00	1355,83
437,00	1355,40
438,00	1354,98
439,00	1358,62
440,00	1355,08
441,00	1356,78
442,00	1350,66
443,00	1358,62
444,00	1353,92
445,00	1355,70
446,00	1349,40
447,00	1350,43
448,00	1355,34
449,00	1349,55
450,00	1350,46
451,00	1351,91
452,00	1359,85
453,00	1357,09
454,00	1355,36
455,00	1356,51
456,00	1357,00
457,00	1358,84
458,00	1351,69
459,00	1357,82
460,00	1356,53
461,00	1353,31
462,00	1359,49
463,00	1351,28
464,00	1351,14
465,00	1355,67
466,00	1354,70
467,00	1353,55
468,00	1360,46
469,00	1359,52
470,00	1354,61
471,00	1350,36
472,00	1349,13
473,00	1350,94
474,00	1351,94
475,00	1351,57
476,00	1356,59
477,00	1355,69
478,00	1354,81
479,00	1351,27
480,00	1355,86
481,00	1353,47
482,00	1363,27
483,00	1353,45
484,00	1358,43
485,00	1359,27
486,00	1353,75
487,00	1362,36
488,00	1359,02
489,00	1350,26
490,00	1357,18
491,00	1355,75
492,00	1357,50
493,00	1351,43
494,00	1353,20
495,00	1359,52
496,00	1359,23
497,00	1357,99
498,00	1358,54
499,00	1358,29
500,00	1350,36
501,00	1355,23
502,00	1355,23
503,00	1354,34
504,00	1356,51
505,00	1355,54
506,00	1359,80
507,00	1358,90
508,00	1351,96
509,00	1355,26
510,00	1350,60
511,00	1357,11
512,00	1355,22
513,00	1351,82
514,00	1354,30
515,00	1356,57
516,00	1355,33
517,00	1356,79
518,00	1354,06
519,00	1355,06
520,00	1359,13
521,00	1354,94
522,00	1354,19
523,00	1358,21
524,00	1358,70
525,00	1354,58
526,00	1355,54
527,00	1354,36
528,00	1356,12
529,00	1356,71
530,00	1356,00
531,00	1356,45
532,00	1350,91
533,00	1355,54
534,00	1361,99
535,00	1351,47
536,00	1357,29
537,00	1355,22
538,00	1355,61
539,00	1354,64
540,00	1357,89
541,00	1359,85
542,00	1355,58
543,00	1360,27
544,00	1354,83
545,00	1352,91
546,00	1359,66
547,00	1356,34
548,00	1356,03
549,00	1358,52
550,00	1354,44
551,00	1359,79
552,00	1358,23
553,00	1356,54
554,00	1356,93
555,00	1356,56
556,00	1360,29
557,00	1357,28
558,00	1352,35
559,00	1356,18
560,00	1363,74
561,00	1363,16
562,00	1361,68
563,00	1369,90
564,00	1366,28
565,00	1358,67
566,00	1359,54
567,00	1362,47
568,00	1355,73
569,00	1354,50
570,00	1353,00
571,00	1352,38
572,00	1352,42
573,00	1352,50
574,00	1359,12
575,00	1355,26
576,00	1360,02
577,00	1354,06
578,00	1358,73
579,00	1357,26
580,00	1355,28
581,00	1358,95
582,00	1356,37
583,00	1356,42
584,00	1354,05
585,00	1353,14
586,00	1353,63
587,00	1360,88
588,00	1354,30
589,00	1353,08
590,00	1357,40
591,00	1362,19
592,00	1360,05
593,00	1359,12
594,00	1358,65
595,00	1353,52
596,00	1355,87
597,00	1358,01
598,00	1352,78
599,00	1353,56
600,00	1355,61
601,00	1361,02
602,00	1353,67
603,00	1354,67
604,00	1359,13
605,00	1356,90
606,00	1356,37
607,00	1359,13
608,00	1359,66
609,00	1358,12
610,00	1356,67
611,00	1352,63
612,00	1354,83
613,00	1356,18
614,00	1353,70
615,00	1358,60
616,00	1355,39
617,00	1356,32
618,00	1358,95
619,00	1356,00
620,00	1355,53
621,00	1354,92
622,00	1358,46
623,00	1359,01
624,00	1353,39
625,00	1357,59
626,00	1357,78
627,00	1356,76
628,00	1356,37
629,00	1357,18
630,00	1356,22
631,00	1356,42
632,00	1354,39
633,00	1363,89
634,00	1357,68
635,00	1357,06
636,00	1349,57
637,00	1359,52
638,00	1349,94
639,00	1355,14
640,00	1361,13
641,00	1358,46
642,00	1360,09
643,00	1358,52
644,00	1356,84
645,00	1355,95
646,00	1357,99
647,00	1358,42
648,00	1360,88
649,00	1355,12
650,00	1357,57
651,00	1356,53
652,00	1354,61
653,00	1359,10
654,00	1352,69
655,00	1357,48
656,00	1358,92
657,00	1358,17
658,00	1359,87
659,00	1362,21
660,00	1359,10
661,00	1364,77
662,00	1361,74
663,00	1361,75
664,00	1356,96
665,00	1358,70
666,00	1362,30
667,00	1360,82
668,00	1356,95
669,00	1357,70
670,00	1358,88
671,00	1357,20
672,00	1358,87
673,00	1358,82
674,00	1352,10
675,00	1352,89
676,00	1354,83
677,00	1352,97
678,00	1354,98
679,00	1358,82
680,00	1354,19
681,00	1356,20
682,00	1361,79
683,00	1358,24
684,00	1357,93
685,00	1351,86
686,00	1355,51
687,00	1361,83
688,00	1356,50
689,00	1355,67
690,00	1357,48
691,00	1357,73
692,00	1355,98
693,00	1354,22
694,00	1356,48
695,00	1359,37
696,00	1361,02
697,00	1359,20
698,00	1356,92
699,00	1355,95
700,00	1358,01
701,00	1362,43
702,00	1355,92
703,00	1356,62
704,00	1357,25
705,00	1356,12
706,00	1352,72
707,00	1357,04
708,00	1355,33
709,00	1360,52
710,00	1363,47
711,00	1356,03
712,00	1359,04
713,00	1350,08
714,00	1363,03
715,00	1358,40
716,00	1354,06
717,00	1360,73
718,00	1352,05
719,00	1359,73
720,00	1355,87
721,00	1359,74
722,00	1358,60
723,00	1355,83
724,00	1359,70
725,00	1362,14
726,00	1355,97
727,00	1360,68
728,00	1354,30
729,00	1358,85
730,00	1355,45
731,00	1360,49
732,00	1358,59
733,00	1355,67
734,00	1354,56
735,00	1358,43
736,00	1355,20
737,00	1355,78
738,00	1354,50
739,00	1361,85
740,00	1356,59
741,00	1356,01
742,00	1355,37
743,00	1359,27
744,00	1355,11
745,00	1358,85
746,00	1357,12
747,00	1353,69
748,00	1356,57
749,00	1357,29
750,00	1356,00
751,00	1363,25
752,00	1356,90
753,00	1361,08
754,00	1354,30
755,00	1355,67
756,00	1358,90
757,00	1357,93
758,00	1360,30
759,00	1353,56
760,00	1359,15
761,00	1354,23
762,00	1354,92
763,00	1355,51
764,00	1355,00
765,00	1354,92
766,00	1354,94
767,00	1356,56
768,00	1360,73
769,00	1359,82
770,00	1359,04
771,00	1357,73
772,00	1361,21
773,00	1358,99
774,00	1360,58
775,00	1355,09
776,00	1356,92
777,00	1357,50
778,00	1358,60
779,00	1357,28
780,00	1358,57
781,00	1354,70
782,00	1357,00
783,00	1359,62
784,00	1357,90
785,00	1360,38
786,00	1356,34
787,00	1355,81
788,00	1362,71
789,00	1356,06
790,00	1361,29
791,00	1351,94
792,00	1359,49
793,00	1360,23
794,00	1357,85
795,00	1356,65
796,00	1359,13
797,00	1353,92
798,00	1359,29
799,00	1361,85
800,00	1361,41
801,00	1365,87
802,00	1361,63
803,00	1354,98
804,00	1361,40
805,00	1356,25
806,00	1359,24
807,00	1359,32
808,00	1362,66
809,00	1354,17
810,00	1357,64
811,00	1355,40
812,00	1358,81
813,00	1356,48
814,00	1353,48
815,00	1357,42
816,00	1354,22
817,00	1360,10
818,00	1356,08
819,00	1360,55
820,00	1351,25
821,00	1348,94
822,00	1353,66
823,00	1350,86
824,00	1357,15
825,00	1359,31
826,00	1357,90
827,00	1360,82
828,00	1352,86
829,00	1359,18
830,00	1357,78
831,00	1357,23
832,00	1361,13
833,00	1361,80
834,00	1360,58
835,00	1358,23
836,00	1357,00
837,00	1361,15
838,00	1354,44
839,00	1353,47
840,00	1357,39
841,00	1360,66
842,00	1362,50
843,00	1364,89
844,00	1359,20
845,00	1357,26
846,00	1361,07
847,00	1352,35
848,00	1361,52
849,00	1362,24
850,00	1357,34
851,00	1359,73
852,00	1359,93
853,00	1358,76
854,00	1361,43
855,00	1354,73
856,00	1355,83
857,00	1360,58
858,00	1358,79
859,00	1359,84
860,00	1357,32
861,00	1360,23
862,00	1356,65
863,00	1362,41
864,00	1358,95
865,00	1358,43
866,00	1357,70
867,00	1354,41
868,00	1357,43
869,00	1356,11
870,00	1355,31
871,00	1357,51
872,00	1355,20
873,00	1358,98
874,00	1355,37
875,00	1359,45
876,00	1358,65
877,00	1357,87
878,00	1357,32
879,00	1357,39
880,00	1362,29
881,00	1359,24
882,00	1361,02
883,00	1359,13
884,00	1358,82
885,00	1358,96
886,00	1356,90
887,00	1354,51
888,00	1363,03
889,00	1362,82
890,00	1360,97
891,00	1357,99
892,00	1353,41
893,00	1356,86
894,00	1353,98
895,00	1355,06
896,00	1357,82
897,00	1358,77
898,00	1361,55
899,00	1361,66
900,00	1362,24
901,00	1363,36
902,00	1363,74
903,00	1358,56
904,00	1355,51
905,00	1356,04
906,00	1360,12
907,00	1351,58
908,00	1359,13
909,00	1356,40
910,00	1355,11
911,00	1362,24
912,00	1355,75
913,00	1359,07
914,00	1359,57
915,00	1361,13
916,00	1359,35
917,00	1362,82
918,00	1360,16
919,00	1358,04
920,00	1357,09
921,00	1362,74
922,00	1361,47
923,00	1358,52
924,00	1356,39
925,00	1351,19
926,00	1358,06
927,00	1360,63
928,00	1359,29
929,00	1358,63
930,00	1355,34
931,00	1360,82
932,00	1352,27
933,00	1358,82
934,00	1360,21
935,00	1361,96
936,00	1358,18
937,00	1359,80
938,00	1358,15
939,00	1361,55
940,00	1357,46
941,00	1359,85
942,00	1358,34
943,00	1354,56
944,00	1358,26
945,00	1360,71
946,00	1358,67
947,00	1356,34
948,00	1356,81
949,00	1359,21
950,00	1360,13
951,00	1354,34
952,00	1357,98
953,00	1354,20
954,00	1359,68
955,00	1363,53
956,00	1357,29
957,00	1357,92
958,00	1356,29
959,00	1360,30
960,00	1358,46
961,00	1358,09
962,00	1359,45
963,00	1357,46
964,00	1359,15
965,00	1358,52
966,00	1358,03
967,00	1359,46
968,00	1355,69
969,00	1359,12
970,00	1361,15
971,00	1361,49
972,00	1360,07
973,00	1369,14
974,00	1397,11
975,00	1441,69
976,00	1412,62
977,00	1425,67
978,00	1513,39
979,00	1487,85
980,00	1434,55
981,00	1406,93
982,00	1392,71
983,00	1379,34
984,00	1365,98
985,00	1361,57
986,00	1362,74
987,00	1359,62
988,00	1363,33
989,00	1357,35
990,00	1360,90
991,00	1363,60
992,00	1360,44
993,00	1358,70
994,00	1361,90
995,00	1357,35
996,00	1360,55
997,00	1362,07
998,00	1362,32
999,00	1360,41
1000,00	1357,56
1001,00	1359,70
1002,00	1362,57
1003,00	1364,14
1004,00	1357,28
1005,00	1362,75
1006,00	1360,83
1007,00	1357,34
1008,00	1360,96
1009,00	1362,75
1010,00	1363,02
1011,00	1363,56
1012,00	1365,73
1013,00	1368,45
1014,00	1360,37
1015,00	1358,01
1016,00	1363,88
1017,00	1360,91
1018,00	1367,01
1019,00	1361,75
1020,00	1360,77
1021,00	1363,69
1022,00	1368,85
1023,00	1369,37
1024,00	1370,26
1025,00	1363,05
1026,00	1369,48
1027,00	1366,33
1028,00	1366,36
1029,00	1363,95
1030,00	1367,78
1031,00	1367,70
1032,00	1366,56
1033,00	1368,11
1034,00	1363,19
1035,00	1367,95
1036,00	1364,38
1037,00	1361,85
1038,00	1365,14
1039,00	1362,02
1040,00	1366,19
1041,00	1364,78
1042,00	1371,48
1043,00	1360,69
1044,00	1365,92
1045,00	1368,81
1046,00	1365,67
1047,00	1369,54
1048,00	1364,75
1049,00	1370,70
1050,00	1370,76
1051,00	1370,02
1052,00	1368,34
1053,00	1368,20
1054,00	1367,53
1055,00	1367,82
1056,00	1366,59
1057,00	1372,47
1058,00	1372,40
1059,00	1373,36
1060,00	1370,84
1061,00	1373,52
1062,00	1376,55
1063,00	1376,06
1064,00	1373,60
1065,00	1379,18
1066,00	1377,75
1067,00	1378,14
1068,00	1380,18
1069,00	1376,77
1070,00	1382,76
1071,00	1380,31
1072,00	1387,14
1073,00	1384,21
1074,00	1386,44
1075,00	1388,12
1076,00	1390,40
1077,00	1391,07
1078,00	1392,71
1079,00	1392,59
1080,00	1403,54
1081,00	1405,26
1082,00	1411,58
1083,00	1411,75
1084,00	1452,16
1085,00	1480,79
1086,00	1458,54
1087,00	1527,36
1088,00	1524,22
1089,00	1497,63
1090,00	1507,68
1091,00	1544,07
1092,00	1506,63
1093,00	1502,47
1094,00	1517,07
1095,00	1537,70
1096,00	1570,75
1097,00	1623,10
1098,00	1702,46
1099,00	1843,33
1100,00	2322,09
1101,00	7059,13
1102,00	34763,77
1103,00	48769,65
1104,00	27436,38
1105,00	26421,90
1106,00	49291,15
1107,00	44992,21
1108,00	23720,86
1109,00	15072,25
1110,00	10305,91
1111,00	6824,00
1112,00	4098,56
1113,00	2640,73
1114,00	2045,82
1115,00	1762,55
1116,00	1612,29
1117,00	1544,68
1118,00	1507,66
1119,00	1485,15
1120,00	1472,29
1121,00	1453,49
1122,00	1450,68
1123,00	1440,54
1124,00	1426,60
1125,00	1427,56
1126,00	1418,58
1127,00	1414,70
1128,00	1410,19
1129,00	1405,01
1130,00	1402,54
1131,00	1398,77
1132,00	1390,61
1133,00	1392,48
1134,00	1393,32
1135,00	1389,26
1136,00	1382,45
1137,00	1387,45
1138,00	1380,37
1139,00	1384,15
1140,00	1379,93
1141,00	1381,43
1142,00	1378,28
1143,00	1381,32
1144,00	1380,49
1145,00	1378,67
1146,00	1373,04
1147,00	1378,86
1148,00	1377,19
1149,00	1370,76
1150,00	1376,61
1151,00	1369,43
1152,00	1371,74
1153,00	1367,11
1154,00	1367,48
1155,00	1363,60
1156,00	1368,03
1157,00	1362,74
1158,00	1366,20
1159,00	1364,00
1160,00	1369,76
1161,00	1365,36
1162,00	1365,13
1163,00	1367,65
1164,00	1365,20
1165,00	1363,07
1166,00	1364,27
1167,00	1364,67
1168,00	1364,59
1169,00	1361,55
1170,00	1359,51
1171,00	1364,05
1172,00	1370,46
1173,00	1364,69
1174,00	1365,22
1175,00	1366,76
1176,00	1364,61
1177,00	1363,89
1178,00	1362,91
1179,00	1365,86
1180,00	1366,26
1181,00	1363,27
1182,00	1360,43
1183,00	1363,53
1184,00	1359,71
1185,00	1363,86
1186,00	1361,99
1187,00	1360,80
1188,00	1358,17
1189,00	1360,85
1190,00	1361,83
1191,00	1362,68
1192,00	1366,19
1193,00	1366,28
1194,00	1368,39
1195,00	1363,21
1196,00	1363,80
1197,00	1360,71
1198,00	1360,88
1199,00	1363,14
1200,00	1363,89
1201,00	1361,57
1202,00	1363,05
1203,00	1362,77
1204,00	1357,87
1205,00	1360,80
1206,00	1362,49
1207,00	1366,98
1208,00	1360,80
1209,00	1359,18
1210,00	1357,89
1211,00	1358,21
1212,00	1363,89
1213,00	1364,70
1214,00	1364,02
1215,00	1359,85
1216,00	1366,05
1217,00	1358,68
1218,00	1356,11
1219,00	1356,68
1220,00	1360,54
1221,00	1359,66
1222,00	1363,81
1223,00	1356,92
1224,00	1360,05
1225,00	1357,60
1226,00	1360,83
1227,00	1361,02
1228,00	1355,61
1229,00	1354,98
1230,00	1356,65
1231,00	1354,69
1232,00	1364,14
1233,00	1357,81
1234,00	1357,74
1235,00	1361,83
1236,00	1358,37
1237,00	1362,66
1238,00	1366,45
1239,00	1362,83
1240,00	1358,51
1241,00	1361,97
1242,00	1362,18
1243,00	1360,57
1244,00	1357,51
1245,00	1359,84
1246,00	1358,15
1247,00	1358,07
1248,00	1363,42
1249,00	1361,75
1250,00	1362,07
1251,00	1362,27
1252,00	1355,48
1253,00	1355,95
1254,00	1361,54
1255,00	1362,22
1256,00	1356,25
1257,00	1358,10
1258,00	1357,93
1259,00	1353,66
1260,00	1355,81
1261,00	1357,90
1262,00	1359,29
1263,00	1357,32
1264,00	1360,91
1265,00	1357,67
1266,00	1357,20
1267,00	1356,17
1268,00	1359,07
1269,00	1365,03
1270,00	1375,17
1271,00	1369,99
1272,00	1363,35
1273,00	1371,51
1274,00	1383,77
1275,00	1380,96
1276,00	1370,85
1277,00	1366,22
1278,00	1367,28
